/////////////////////////////////////////////////////////////////////////////////
/// Profile Data Ascii Dump (XRD)                                             ///
/////////////////////////////////////////////////////////////////////////////////

  Group     : Standard
  Data      : 000_2_2
  File Name : 000_2_2.RAW

# Profile Datafile
          comment             =  
          date & time         = 25-07-30 14:24:01 

# Measurement Condition
    X-ray tube
          target              = Cu 
          voltage             = 40.0 (kV)
          current             = 30.0 (mA)
    Slits
          divergence slit     = 1.00000 (deg) 
          scatter slit        = 1.00000 (deg) 
          receiving slit      = 0.30000 (mm)  
    Scanning
          drive axis          = Theta-2Theta 
          scan range          =   10.000 -   70.000 
          scan mode           = Continuous Scan 
          scan speed          =   3.0000 (deg/min) 
          sampling pitch      =   0.0200 (deg) 
          preset time         =   0.40 (sec) 

# Data      [ Total No. = 3001 ]
  <2Theta>   <   I   >
    10.0000       492
    10.0200       544
    10.0400       508
    10.0600       498
    10.0800       502
    10.1000       498
    10.1200       498
    10.1400       492
    10.1600       526
    10.1800       446
    10.2000       468
    10.2200       458
    10.2400       482
    10.2600       466
    10.2800       476
    10.3000       486
    10.3200       508
    10.3400       468
    10.3600       432
    10.3800       464
    10.4000       410
    10.4200       438
    10.4400       462
    10.4600       424
    10.4800       404
    10.5000       406
    10.5200       414
    10.5400       398
    10.5600       438
    10.5800       434
    10.6000       452
    10.6200       440
    10.6400       408
    10.6600       416
    10.6800       458
    10.7000       418
    10.7200       448
    10.7400       418
    10.7600       410
    10.7800       396
    10.8000       402
    10.8200       460
    10.8400       458
    10.8600       448
    10.8800       426
    10.9000       372
    10.9200       454
    10.9400       440
    10.9600       418
    10.9800       424
    11.0000       436
    11.0200       460
    11.0400       398
    11.0600       430
    11.0800       422
    11.1000       436
    11.1200       396
    11.1400       430
    11.1600       388
    11.1800       394
    11.2000       434
    11.2200       406
    11.2400       388
    11.2600       390
    11.2800       394
    11.3000       406
    11.3200       398
    11.3400       426
    11.3600       394
    11.3800       426
    11.4000       390
    11.4200       422
    11.4400       406
    11.4600       388
    11.4800       444
    11.5000       408
    11.5200       416
    11.5400       434
    11.5600       376
    11.5800       446
    11.6000       414
    11.6200       428
    11.6400       378
    11.6600       430
    11.6800       388
    11.7000       384
    11.7200       362
    11.7400       448
    11.7600       426
    11.7800       360
    11.8000       388
    11.8200       376
    11.8400       412
    11.8600       422
    11.8800       372
    11.9000       392
    11.9200       410
    11.9400       418
    11.9600       428
    11.9800       418
    12.0000       424
    12.0200       398
    12.0400       440
    12.0600       402
    12.0800       404
    12.1000       398
    12.1200       400
    12.1400       412
    12.1600       430
    12.1800       434
    12.2000       376
    12.2200       376
    12.2400       420
    12.2600       380
    12.2800       384
    12.3000       388
    12.3200       388
    12.3400       414
    12.3600       396
    12.3800       382
    12.4000       426
    12.4200       398
    12.4400       348
    12.4600       406
    12.4800       388
    12.5000       408
    12.5200       412
    12.5400       418
    12.5600       410
    12.5800       374
    12.6000       384
    12.6200       414
    12.6400       378
    12.6600       370
    12.6800       378
    12.7000       442
    12.7200       432
    12.7400       432
    12.7600       402
    12.7800       384
    12.8000       394
    12.8200       386
    12.8400       388
    12.8600       374
    12.8800       404
    12.9000       414
    12.9200       410
    12.9400       408
    12.9600       416
    12.9800       414
    13.0000       392
    13.0200       434
    13.0400       398
    13.0600       374
    13.0800       404
    13.1000       398
    13.1200       402
    13.1400       438
    13.1600       420
    13.1800       428
    13.2000       382
    13.2200       400
    13.2400       458
    13.2600       450
    13.2800       422
    13.3000       448
    13.3200       398
    13.3400       408
    13.3600       414
    13.3800       382
    13.4000       446
    13.4200       420
    13.4400       404
    13.4600       404
    13.4800       424
    13.5000       390
    13.5200       396
    13.5400       386
    13.5600       380
    13.5800       428
    13.6000       436
    13.6200       444
    13.6400       414
    13.6600       402
    13.6800       358
    13.7000       400
    13.7200       388
    13.7400       418
    13.7600       404
    13.7800       438
    13.8000       386
    13.8200       416
    13.8400       394
    13.8600       420
    13.8800       440
    13.9000       390
    13.9200       406
    13.9400       374
    13.9600       400
    13.9800       396
    14.0000       426
    14.0200       408
    14.0400       418
    14.0600       414
    14.0800       436
    14.1000       432
    14.1200       450
    14.1400       378
    14.1600       466
    14.1800       450
    14.2000       422
    14.2200       442
    14.2400       450
    14.2600       458
    14.2800       444
    14.3000       412
    14.3200       436
    14.3400       418
    14.3600       430
    14.3800       424
    14.4000       434
    14.4200       450
    14.4400       432
    14.4600       368
    14.4800       440
    14.5000       454
    14.5200       488
    14.5400       438
    14.5600       490
    14.5800       418
    14.6000       414
    14.6200       426
    14.6400       430
    14.6600       440
    14.6800       444
    14.7000       472
    14.7200       406
    14.7400       434
    14.7600       450
    14.7800       434
    14.8000       488
    14.8200       446
    14.8400       448
    14.8600       406
    14.8800       398
    14.9000       470
    14.9200       450
    14.9400       446
    14.9600       418
    14.9800       434
    15.0000       470
    15.0200       458
    15.0400       450
    15.0600       448
    15.0800       414
    15.1000       420
    15.1200       452
    15.1400       468
    15.1600       434
    15.1800       418
    15.2000       428
    15.2200       434
    15.2400       474
    15.2600       452
    15.2800       442
    15.3000       470
    15.3200       438
    15.3400       426
    15.3600       450
    15.3800       426
    15.4000       446
    15.4200       480
    15.4400       426
    15.4600       424
    15.4800       434
    15.5000       430
    15.5200       442
    15.5400       486
    15.5600       444
    15.5800       490
    15.6000       462
    15.6200       446
    15.6400       448
    15.6600       464
    15.6800       434
    15.7000       478
    15.7200       434
    15.7400       406
    15.7600       458
    15.7800       456
    15.8000       436
    15.8200       442
    15.8400       456
    15.8600       448
    15.8800       490
    15.9000       476
    15.9200       472
    15.9400       462
    15.9600       440
    15.9800       442
    16.0000       440
    16.0200       418
    16.0400       432
    16.0600       462
    16.0800       426
    16.1000       464
    16.1200       444
    16.1400       446
    16.1600       432
    16.1800       410
    16.2000       436
    16.2200       456
    16.2400       442
    16.2600       438
    16.2800       482
    16.3000       464
    16.3200       470
    16.3400       454
    16.3600       432
    16.3800       442
    16.4000       442
    16.4200       464
    16.4400       470
    16.4600       420
    16.4800       476
    16.5000       470
    16.5200       492
    16.5400       444
    16.5600       444
    16.5800       460
    16.6000       468
    16.6200       476
    16.6400       454
    16.6600       470
    16.6800       508
    16.7000       458
    16.7200       480
    16.7400       494
    16.7600       452
    16.7800       466
    16.8000       458
    16.8200       428
    16.8400       484
    16.8600       472
    16.8800       494
    16.9000       478
    16.9200       512
    16.9400       466
    16.9600       464
    16.9800       462
    17.0000       444
    17.0200       470
    17.0400       480
    17.0600       454
    17.0800       524
    17.1000       456
    17.1200       490
    17.1400       464
    17.1600       492
    17.1800       460
    17.2000       464
    17.2200       436
    17.2400       476
    17.2600       470
    17.2800       486
    17.3000       530
    17.3200       484
    17.3400       492
    17.3600       476
    17.3800       526
    17.4000       458
    17.4200       492
    17.4400       510
    17.4600       484
    17.4800       436
    17.5000       500
    17.5200       524
    17.5400       490
    17.5600       470
    17.5800       492
    17.6000       464
    17.6200       494
    17.6400       454
    17.6600       456
    17.6800       536
    17.7000       482
    17.7200       490
    17.7400       456
    17.7600       488
    17.7800       460
    17.8000       508
    17.8200       474
    17.8400       474
    17.8600       498
    17.8800       526
    17.9000       482
    17.9200       480
    17.9400       494
    17.9600       534
    17.9800       526
    18.0000       492
    18.0200       490
    18.0400       478
    18.0600       462
    18.0800       532
    18.1000       486
    18.1200       514
    18.1400       540
    18.1600       508
    18.1800       492
    18.2000       482
    18.2200       500
    18.2400       496
    18.2600       494
    18.2800       514
    18.3000       476
    18.3200       516
    18.3400       490
    18.3600       540
    18.3800       526
    18.4000       516
    18.4200       538
    18.4400       538
    18.4600       550
    18.4800       528
    18.5000       542
    18.5200       548
    18.5400       488
    18.5600       530
    18.5800       478
    18.6000       490
    18.6200       522
    18.6400       532
    18.6600       502
    18.6800       480
    18.7000       520
    18.7200       488
    18.7400       538
    18.7600       548
    18.7800       484
    18.8000       528
    18.8200       502
    18.8400       530
    18.8600       498
    18.8800       504
    18.9000       514
    18.9200       528
    18.9400       530
    18.9600       504
    18.9800       534
    19.0000       522
    19.0200       518
    19.0400       554
    19.0600       532
    19.0800       506
    19.1000       542
    19.1200       514
    19.1400       496
    19.1600       482
    19.1800       528
    19.2000       592
    19.2200       526
    19.2400       502
    19.2600       538
    19.2800       546
    19.3000       522
    19.3200       556
    19.3400       524
    19.3600       556
    19.3800       510
    19.4000       604
    19.4200       544
    19.4400       558
    19.4600       536
    19.4800       508
    19.5000       510
    19.5200       566
    19.5400       564
    19.5600       542
    19.5800       540
    19.6000       506
    19.6200       550
    19.6400       542
    19.6600       544
    19.6800       530
    19.7000       540
    19.7200       558
    19.7400       608
    19.7600       566
    19.7800       514
    19.8000       560
    19.8200       514
    19.8400       532
    19.8600       548
    19.8800       538
    19.9000       566
    19.9200       558
    19.9400       600
    19.9600       510
    19.9800       554
    20.0000       510
    20.0200       534
    20.0400       572
    20.0600       552
    20.0800       566
    20.1000       564
    20.1200       574
    20.1400       566
    20.1600       532
    20.1800       582
    20.2000       526
    20.2200       556
    20.2400       622
    20.2600       600
    20.2800       544
    20.3000       594
    20.3200       572
    20.3400       580
    20.3600       548
    20.3800       544
    20.4000       558
    20.4200       572
    20.4400       562
    20.4600       550
    20.4800       558
    20.5000       544
    20.5200       584
    20.5400       516
    20.5600       564
    20.5800       578
    20.6000       576
    20.6200       592
    20.6400       578
    20.6600       546
    20.6800       548
    20.7000       580
    20.7200       578
    20.7400       598
    20.7600       588
    20.7800       548
    20.8000       588
    20.8200       588
    20.8400       600
    20.8600       596
    20.8800       586
    20.9000       560
    20.9200       606
    20.9400       526
    20.9600       608
    20.9800       554
    21.0000       534
    21.0200       574
    21.0400       562
    21.0600       550
    21.0800       558
    21.1000       568
    21.1200       536
    21.1400       572
    21.1600       550
    21.1800       602
    21.2000       574
    21.2200       600
    21.2400       580
    21.2600       622
    21.2800       600
    21.3000       564
    21.3200       594
    21.3400       604
    21.3600       566
    21.3800       572
    21.4000       590
    21.4200       590
    21.4400       566
    21.4600       572
    21.4800       578
    21.5000       616
    21.5200       568
    21.5400       580
    21.5600       588
    21.5800       598
    21.6000       612
    21.6200       546
    21.6400       588
    21.6600       614
    21.6800       598
    21.7000       602
    21.7200       572
    21.7400       594
    21.7600       586
    21.7800       558
    21.8000       604
    21.8200       622
    21.8400       588
    21.8600       606
    21.8800       628
    21.9000       546
    21.9200       606
    21.9400       564
    21.9600       568
    21.9800       614
    22.0000       578
    22.0200       580
    22.0400       580
    22.0600       562
    22.0800       580
    22.1000       578
    22.1200       558
    22.1400       540
    22.1600       608
    22.1800       602
    22.2000       582
    22.2200       636
    22.2400       616
    22.2600       608
    22.2800       598
    22.3000       662
    22.3200       614
    22.3400       614
    22.3600       630
    22.3800       604
    22.4000       652
    22.4200       616
    22.4400       630
    22.4600       572
    22.4800       558
    22.5000       586
    22.5200       594
    22.5400       608
    22.5600       634
    22.5800       628
    22.6000       620
    22.6200       600
    22.6400       612
    22.6600       618
    22.6800       598
    22.7000       584
    22.7200       594
    22.7400       646
    22.7600       614
    22.7800       646
    22.8000       612
    22.8200       638
    22.8400       598
    22.8600       652
    22.8800       584
    22.9000       604
    22.9200       612
    22.9400       600
    22.9600       596
    22.9800       590
    23.0000       630
    23.0200       620
    23.0400       640
    23.0600       650
    23.0800       628
    23.1000       580
    23.1200       568
    23.1400       662
    23.1600       652
    23.1800       614
    23.2000       648
    23.2200       638
    23.2400       606
    23.2600       614
    23.2800       618
    23.3000       632
    23.3200       610
    23.3400       640
    23.3600       670
    23.3800       678
    23.4000       638
    23.4200       676
    23.4400       632
    23.4600       612
    23.4800       636
    23.5000       642
    23.5200       672
    23.5400       626
    23.5600       644
    23.5800       618
    23.6000       664
    23.6200       636
    23.6400       644
    23.6600       640
    23.6800       648
    23.7000       616
    23.7200       656
    23.7400       630
    23.7600       644
    23.7800       620
    23.8000       688
    23.8200       654
    23.8400       626
    23.8600       654
    23.8800       704
    23.9000       654
    23.9200       610
    23.9400       640
    23.9600       660
    23.9800       622
    24.0000       632
    24.0200       698
    24.0400       656
    24.0600       566
    24.0800       668
    24.1000       656
    24.1200       612
    24.1400       640
    24.1600       632
    24.1800       622
    24.2000       618
    24.2200       676
    24.2400       644
    24.2600       624
    24.2800       674
    24.3000       648
    24.3200       602
    24.3400       622
    24.3600       676
    24.3800       650
    24.4000       652
    24.4200       646
    24.4400       624
    24.4600       656
    24.4800       652
    24.5000       664
    24.5200       692
    24.5400       676
    24.5600       586
    24.5800       638
    24.6000       706
    24.6200       664
    24.6400       698
    24.6600       612
    24.6800       682
    24.7000       644
    24.7200       570
    24.7400       668
    24.7600       652
    24.7800       720
    24.8000       632
    24.8200       614
    24.8400       656
    24.8600       624
    24.8800       724
    24.9000       674
    24.9200       630
    24.9400       646
    24.9600       704
    24.9800       648
    25.0000       678
    25.0200       648
    25.0400       692
    25.0600       636
    25.0800       676
    25.1000       682
    25.1200       684
    25.1400       634
    25.1600       674
    25.1800       678
    25.2000       688
    25.2200       628
    25.2400       596
    25.2600       636
    25.2800       664
    25.3000       652
    25.3200       654
    25.3400       680
    25.3600       596
    25.3800       586
    25.4000       644
    25.4200       638
    25.4400       672
    25.4600       634
    25.4800       662
    25.5000       656
    25.5200       682
    25.5400       674
    25.5600       676
    25.5800       636
    25.6000       626
    25.6200       622
    25.6400       636
    25.6600       678
    25.6800       644
    25.7000       648
    25.7200       644
    25.7400       688
    25.7600       654
    25.7800       656
    25.8000       684
    25.8200       626
    25.8400       688
    25.8600       652
    25.8800       664
    25.9000       642
    25.9200       650
    25.9400       702
    25.9600       658
    25.9800       702
    26.0000       630
    26.0200       682
    26.0400       678
    26.0600       646
    26.0800       726
    26.1000       720
    26.1200       634
    26.1400       654
    26.1600       684
    26.1800       656
    26.2000       650
    26.2200       666
    26.2400       664
    26.2600       650
    26.2800       644
    26.3000       656
    26.3200       682
    26.3400       628
    26.3600       620
    26.3800       728
    26.4000       632
    26.4200       670
    26.4400       680
    26.4600       656
    26.4800       630
    26.5000       692
    26.5200       620
    26.5400       664
    26.5600       680
    26.5800       646
    26.6000       676
    26.6200       634
    26.6400       720
    26.6600       664
    26.6800       676
    26.7000       632
    26.7200       672
    26.7400       668
    26.7600       630
    26.7800       692
    26.8000       670
    26.8200       662
    26.8400       692
    26.8600       692
    26.8800       652
    26.9000       688
    26.9200       676
    26.9400       658
    26.9600       722
    26.9800       674
    27.0000       650
    27.0200       696
    27.0400       694
    27.0600       684
    27.0800       678
    27.1000       678
    27.1200       680
    27.1400       718
    27.1600       710
